File: V44_Röntgenreflektometrie/data/refl1.uxd
; (content of file C:\Users\Michael\Desktop\PP_080622\refl1.raw)
_FILEVERSION = 2
_SAMPLE =
_+SAMPLE =
_SITE = Dortmund
_USER = "Metin Tolan"
_GONIOMETER_CODE = 21
_STAGE_CODE = 8
; Goniometer : D8 theta/theta, stage : XYZ Drive(s)
_SAMPLE_CHANGER_CODE = 0
_ATTACHMENTS_CODE = 0
_GONIOMETER_RADIUS = 300
_FIXED_DIVSLIT = 0.15
_FIXED_SAMPLESLIT = 1
_SOLLER_SLITS = 2
_FIXED_DETSLIT = 1
_MONOCHROMATOR = 0
; Incident beam monochromator : None
_THIN_FILM = N
_BETA_FILTER = N
_FIXED_ANTISLIT = 0.15
_ANALYZER_CODE = 0
; Received beam analyzer : None
_DATEMEASURED = "08-Jun-2022 12:54:46"
_WL_UNIT = A
_WL1 = 1.5406
_WL2 = 1.54439
_WL3 = 1.39222
_WLRATIO = 0.5
_ANODE = Cu

; Data for range 1
_DRIVE = COUPLED
_STEPTIME = 9.942
_STEPSIZE = 0.005
_STEPMODE = C
_START = 0
_THETA = 0
_2THETA = 0
_KHI = 0
_PHI = 0
_X = 19
_Y = 15
_Z = -9.712
_DETECTOR = 1
; Detector type : Scintillation counter
_HV = 743.4
_GAIN = 80
_LLD = 0.98
_ULD = 2.01
_DETECTORSLIT = out
_AUX1 = 0
_AUX2 = 0
_AUX3 = 0
_TIMESTARTED = 1
_TEMP_RATE = -1
_TEMP_DELAY = -1
_KV = 40
_MA = 35
_RANGE_WL = 1.5406
_3DPLANE = 0
_V4_COUNTERS_MASK = 1
_V4_DRIVES_MASK = 0
_V4_ENCODERS_MASK = 0
_2THETACOUNTS = 1
; 2THETA  Cnt1_D1
   0.0000  232408000
   0.0050  264332992
   0.0100  312079008
   0.0150  349520992
   0.0200  376775008
   0.0250  376608000
   0.0300  349835008
   0.0350  296737984
   0.0400  229524000
   0.0450  179447008
   0.0500  136528992
   0.0550  110279000
   0.0600   92075000
   0.0650   83537296
   0.0700   79106496
   0.0750   82001200
   0.0800   80339600
   0.0850   85773600
   0.0900   88793696
   0.0950   94217200
   0.1000   97728400
   0.1050  105263000
   0.1100  110948000
   0.1150  115483000
   0.1200  118513000
   0.1250  122662000
   0.1300  128441000
   0.1350  133112000
   0.1400  136059008
   0.1450  145996992
   0.1500  149456000
   0.1550  152831008
   0.1600  157482000
   0.1650  161180992
   0.1700  167252000
   0.1750  171558000
   0.1800  174578000
   0.1850  182018000
   0.1900  187922000
   0.1950  189708992
   0.2000  195676000
   0.2050  201319008
   0.2100  204412000
   0.2150  209606000
   0.2200  214570000
   0.2250  217851008
   0.2300  220600000
   0.2350  226628992
   0.2400  233160000
   0.2450  236902000
   0.2500  242868000
   0.2550  243360000
   0.2600  251114000
   0.2650  253235008
   0.2700  257236992
   0.2750  261552992
   0.2800  264051008
   0.2850  270508992
   0.2900  273225984
   0.2950  277124000
   0.3000  276894016
   0.3050  282233984
   0.3100  281115008
   0.3150  284470016
   0.3200  277343008
   0.3250  276016000
   0.3300  274887008
   0.3350  277803008
   0.3400  280123008
   0.3450  282411008
   0.3500  288107008
   0.3550  289704992
   0.3600  292756992
   0.3650  291680000
   0.3700  294449984
   0.3750  295640992
   0.3800  301430016
   0.3850  305203008
   0.3900  314566016
   0.3950  315287008
   0.4000  320992992
   0.4050  318464000
   0.4100  321620000
   0.4150  316812992
   0.4200  309716992
   0.4250  302862016
   0.4300  292548000
   0.4350  283696992
   0.4400  275587008
   0.4450  261595008
   0.4500  241918000
   0.4550  220171008
   0.4600  192248992
   0.4650  166164992
   0.4700  137104000
   0.4750  110801000
   0.4800   86400600
   0.4850   67036800
   0.4900   52103700
   0.4950   41758200
   0.5000   33983400
   0.5050   29866100
   0.5100   29343600
   0.5150   28957000
   0.5200   29772100
   0.5250   30534900
   0.5300   31945700
   0.5350   31224600
   0.5400   29709400
   0.5450   28058300
   0.5500   25163600
   0.5550   22645200
   0.5600   16970200
   0.5650   15174100
   0.5700   12057900
   0.5750    9755540
   0.5800    8021850
   0.5850    7084580
   0.5900    6763110
   0.5950    7039350
   0.6000    7724810
   0.6050    8691250
   0.6100    9659420
   0.6150   10422300
   0.6200   10983500
   0.6250   11184100
   0.6300   10973800
   0.6350   10394000
   0.6400    9551790
   0.6450    8535160
   0.6500    7187570
   0.6550    6080580
   0.6600    4945310
   0.6650    3999670
   0.6700    3223640
   0.6750    2790500
   0.6800    2618450
   0.6850    2720830
   0.6900    3071990
   0.6950    3458690
   0.7000    3918490
   0.7050    4406060
   0.7100    4829100
   0.7150    5081520
   0.7200    5187230
   0.7250    5128470
   0.7300    4904520
   0.7350    4535290
   0.7400    4044600
   0.7450    3484130
   0.7500    2881870
   0.7550    2373410
   0.7600    1930670
   0.7650    1586180
   0.7700    1477660
   0.7750    1381440
   0.7800    1397800
   0.7850    1558530
   0.7900    1769550
   0.7950    2025310
   0.8000    2303760
   0.8050    2551510
   0.8100    2624510
   0.8150    2735880
   0.8200    2743750
   0.8250    2629050
   0.8300    2544650
   0.8350    2327970
   0.8400    2056480
   0.8450    1705480
   0.8500    1535450
   0.8550    1282670
   0.8600    1051170
   0.8650     876515
   0.8700     776808
   0.8750     739130
   0.8800     781106
   0.8850     871842
   0.8900    1007560
   0.8950    1151660
   0.9000    1302460
   0.9050    1447580
   0.9100    1547970
   0.9150    1602310
   0.9200    1620360
   0.9250    1582890
   0.9300    1499720
   0.9350    1380540
   0.9400    1229150
   0.9450    1063360
   0.9500     893017
   0.9550     734726
   0.9600     613575
   0.9650     515623
   0.9700     453287
   0.9750     434242
   0.9800     451743
   0.9850     503016
   0.9900     573460
   0.9950     654256
   1.0000     750691
   1.0050     834366
   1.0100     905193
   1.0150     947889
   1.0200     958923
   1.0250     948829
   1.0300     914394
   1.0350     847884
   1.0400     772423
   1.0450     667122
   1.0500     577518
   1.0550     487981
   1.0600     404614
   1.0650     343295
   1.0700     295504
   1.0750     272755
   1.0800     273696
   1.0850     296492
   1.0900     334084
   1.0950     382988
   1.1000     440709
   1.1050     491138
   1.1100     540665
   1.1150     578238
   1.1200     589521
   1.1250     599528
   1.1300     581327
   1.1350     557715
   1.1400     512323
   1.1450     458929
   1.1500     406619
   1.1550     346758
   1.1600     295897
   1.1650     245612
   1.1700     207387
   1.1750     200292
   1.1800     198373
   1.1850     204022
   1.1900     222923
   1.1950     244854
   1.2000     260724
   1.2050     296128
   1.2100     329200
   1.2150     359059
   1.2200     378756
   1.2250     389349
   1.2300     389598
   1.2350     383055
   1.2400     362465
   1.2450     330668
   1.2500     293489
   1.2550     258958
   1.2600     224063
   1.2650     191121
   1.2700     175657
   1.2750     154059
   1.2800     139838
   1.2850     135337
   1.2900     140528
   1.2950     153625
   1.3000     173028
   1.3050     195757
   1.3100     222075
   1.3150     244634
   1.3200     245344
   1.3250     252453
   1.3300     262048
   1.3350     256905
   1.3400     252559
   1.3450     237284
   1.3500     219409
   1.3550     204259
   1.3600     189352
   1.3650     162874
   1.3700     139931
   1.3750     119238
   1.3800     104945
   1.3850      96257
   1.3900      94771
   1.3950      99044
   1.4000     107975
   1.4050     121939
   1.4100     137531
   1.4150     154940
   1.4200     169873
   1.4250     182889
   1.4300     191318
   1.4350     195775
   1.4400     194848
   1.4450     188477
   1.4500     178219
   1.4550     164967
   1.4600     148170
   1.4650     130050
   1.4700     111986
   1.4750      96909